Zeit;Kanal A
(ms);(V)

-25.04999936;0.71690450
-25.02499936;0.71690450
-24.99999936;0.71690450
-24.97499936;0.69801920
-24.94999936;0.71690450
-24.92499936;0.71690450
-24.89999936;0.71690450
-24.87499936;0.71690450
-24.84999936;0.71690450
-24.82499936;0.71690450
-24.79999936;0.71690450
-24.77499936;0.71690450
-24.74999936;0.71690450
-24.72499936;0.71690450
-24.69999937;0.71690450
-24.67499937;0.71690450
-24.64999937;0.71690450
-24.62499937;0.71690450
-24.59999937;0.69801920
-24.57499937;0.71690450
-24.54999937;0.71690450
-24.52499937;0.69801920
-24.49999937;0.71690450
-24.47499937;0.71690450
-24.44999937;0.71690450
-24.42499937;0.71690450
-24.39999937;0.71690450
-24.37499937;0.71690450
-24.34999937;0.69801920
-24.32499937;0.71690450
-24.29999938;0.71690450
-24.27499938;0.69801920
-24.24999938;0.71690450
-24.22499938;0.71690450
-24.19999938;0.71690450
-24.17499938;0.71690450
-24.14999938;0.71690450
-24.12499938;0.69801920
-24.09999938;0.71690450
-24.07499938;0.71690450
-24.04999938;0.71690450
-24.02499938;0.71690450
-23.99999938;0.69801920
-23.97499938;0.66031000
-23.94999938;0.71690450
-23.92499938;0.69801920
-23.89999939;0.69801920
-23.87499939;0.71690450
-23.84999939;0.50935040
-23.82499939;0.69801920
-23.79999939;0.69801920
-23.77499939;0.71690450
-23.74999939;0.73578980
-23.72499939;0.66031000
-23.69999939;0.73578980
-23.67499939;0.71690450
-23.64999939;0.71690450
-23.62499939;0.71690450
-23.59999939;0.71690450
-23.57499939;0.71690450
-23.54999939;0.71690450
-23.52499939;0.75461370
-23.49999940;0.69801920
-23.47499940;0.71690450
-23.44999940;0.71690450
-23.42499940;0.71690450
-23.39999940;0.71690450
-23.37499940;0.71690450
-23.34999940;0.71690450
-23.32499940;0.73578980
-23.29999940;0.67919530
-23.27499940;0.71690450
-23.24999940;0.71690450
-23.22499940;0.71690450
-23.19999940;0.71690450
-23.17499940;0.71690450
-23.14999940;0.69801920
-23.12499940;0.79238430
-23.09999941;0.71690450
-23.07499941;0.73578980
-23.04999941;0.71690450
-23.02499941;0.71690450
-22.99999941;0.71690450
-22.97499941;0.71690450
-22.94999941;0.71690450
-22.92499941;0.71690450
-22.89999941;0.73578980
-22.87499941;0.71690450
-22.84999941;0.71690450
-22.82499941;0.71690450
-22.79999941;0.69801920
-22.77499941;0.71690450
-22.74999941;0.71690450
-22.72499942;0.69801920
-22.69999942;0.71690450
-22.67499942;0.71690450
-22.64999942;0.71690450
-22.62499942;0.71690450
-22.59999942;0.71690450
-22.57499942;0.71690450
-22.54999942;0.71690450
-22.52499942;0.71690450
-22.49999942;0.71690450
-22.47499942;0.71690450
-22.44999942;0.71690450
-22.42499942;0.73578980
-22.39999942;0.71690450
-22.37499942;0.71690450
-22.34999942;0.71690450
-22.32499943;0.69801920
-22.29999943;0.71690450
-22.27499943;0.75461370
-22.24999943;0.71690450
-22.22499943;0.71690450
-22.19999943;0.71690450
-22.17499943;0.71690450
-22.14999943;0.71690450
-22.12499943;0.71690450
-22.09999943;0.69801920
-22.07499943;0.71690450
-22.04999943;0.73578980
-22.02499943;0.69801920
-21.99999943;0.71690450
-21.97499943;0.71690450
-21.94999943;0.69801920
-21.92499944;0.71690450
-21.89999944;0.71690450
-21.87499944;0.73578980
-21.84999944;0.71690450
-21.82499944;0.69801920
-21.79999944;0.71690450
-21.77499944;0.71690450
-21.74999944;0.71690450
-21.72499944;0.71690450
-21.69999944;0.71690450
-21.67499944;0.71690450
-21.64999944;0.71690450
-21.62499944;0.71690450
-21.59999944;0.71690450
-21.57499944;0.73578980
-21.54999944;0.71690450
-21.52499945;0.71690450
-21.49999945;0.71690450
-21.47499945;0.71690450
-21.44999945;0.69801920
-21.42499945;0.71690450
-21.39999945;0.71690450
-21.37499945;0.71690450
-21.34999945;0.71690450
-21.32499945;0.71690450
-21.29999945;0.71690450
-21.27499945;0.71690450
-21.24999945;0.69801920
-21.22499945;0.71690450
-21.19999945;0.73578980
-21.17499945;0.71690450
-21.14999945;0.66031000
-21.12499946;0.71690450
-21.09999946;0.71690450
-21.07499946;0.71690450
-21.04999946;0.71690450
-21.02499946;0.67919530
-20.99999946;0.67919530
-20.97499946;0.67919530
-20.94999946;0.90557330
-20.92499946;0.73578980
-20.89999946;0.69801920
-20.87499946;0.73578980
-20.84999946;0.71690450
-20.82499946;0.67919530
-20.79999946;0.69801920
-20.77499946;0.69801920
-20.74999946;0.71690450
-20.72499947;0.69801920
-20.69999947;0.71690450
-20.67499947;0.71690450
-20.64999947;0.71690450
-20.62499947;0.69801920
-20.59999947;0.71690450
-20.57499947;0.71690450
-20.54999947;0.71690450
-20.52499947;0.71690450
-20.49999947;0.71690450
-20.47499947;0.71690450
-20.44999947;0.71690450
-20.42499947;0.71690450
-20.39999947;0.71690450
-20.37499947;0.71690450
-20.34999948;0.71690450
-20.32499948;0.71690450
-20.29999948;0.71690450
-20.27499948;0.69801920
-20.24999948;0.71690450
-20.22499948;0.73578980
-20.19999948;0.71690450
-20.17499948;0.71690450
-20.14999948;0.71690450
-20.12499948;0.71690450
-20.09999948;0.71690450
-20.07499948;0.71690450
-20.04999948;0.71690450
-20.02499948;0.73578980
-19.99999948;0.71690450
-19.97499948;0.71690450
-19.94999949;0.71690450
-19.92499949;0.71690450
-19.89999949;0.71690450
-19.87499949;0.71690450
-19.84999949;0.73578980
-19.82499949;0.71690450
-19.79999949;0.71690450
-19.77499949;0.71690450
-19.74999949;0.71690450
-19.72499949;0.71690450
-19.69999949;0.71690450
-19.67499949;0.71690450
-19.64999949;0.71690450
-19.62499949;0.71690450
-19.59999949;0.69801920
-19.57499949;0.71690450
-19.54999950;0.71690450
-19.52499950;0.69801920
-19.49999950;0.71690450
-19.47499950;0.71690450
-19.44999950;0.71690450
-19.42499950;0.71690450
-19.39999950;0.66031000
-19.37499950;0.71690450
-19.34999950;0.71690450
-19.32499950;0.71690450
-19.29999950;0.71690450
-19.27499950;0.71690450
-19.24999950;0.71690450
-19.22499950;0.69801920
-19.19999950;0.71690450
-19.17499950;0.75461370
-19.14999951;0.71690450
-19.12499951;0.71690450
-19.09999951;0.71690450
-19.07499951;0.71690450
-19.04999951;0.71690450
-19.02499951;0.71690450
-18.99999951;0.69801920
-18.97499951;0.71690450
-18.94999951;0.71690450
-18.92499951;0.69801920
-18.89999951;0.71690450
-18.87499951;0.71690450
-18.84999951;0.71690450
-18.82499951;0.71690450
-18.79999951;0.71690450
-18.77499951;0.71690450
-18.74999952;0.71690450
-18.72499952;0.71690450
-18.69999952;0.71690450
-18.67499952;0.71690450
-18.64999952;0.71690450
-18.62499952;0.71690450
-18.59999952;0.73578980
-18.57499952;0.69801920
-18.54999952;0.60371550
-18.52499952;0.71690450
-18.49999952;0.75461370
-18.47499952;0.69801920
-18.44999952;0.86780270
-18.42499952;0.67919530
-18.39999952;0.71690450
-18.37499952;0.71690450
-18.34999953;0.71690450
-18.32499953;0.64142470
-18.29999953;0.67919530
-18.27499953;0.71690450
-18.24999953;0.73578980
-18.22499953;0.77349900
-18.19999953;0.69801920
-18.17499953;0.71690450
-18.14999953;0.71690450
-18.12499953;0.71690450
-18.09999953;0.71690450
-18.07499953;0.71690450
-18.04999953;0.73578980
-18.02499953;0.71690450
-17.99999953;0.71690450
-17.97499953;0.71690450
-17.94999954;0.71690450
-17.92499954;0.71690450
-17.89999954;0.71690450
-17.87499954;0.71690450
-17.84999954;0.67919530
-17.82499954;0.69801920
-17.79999954;0.71690450
-17.77499954;0.71690450
-17.74999954;0.71690450
-17.72499954;0.67919530
-17.69999954;0.69801920
-17.67499954;0.71690450
-17.64999954;0.71690450
-17.62499954;0.71690450
-17.59999954;0.69801920
-17.57499955;0.71690450
-17.54999955;0.71690450
-17.52499955;0.71690450
-17.49999955;0.71690450
-17.47499955;0.69801920
-17.44999955;0.69801920
-17.42499955;0.71690450
-17.39999955;0.71690450
-17.37499955;0.69801920
-17.34999955;0.69801920
-17.32499955;0.71690450
-17.29999955;0.67919530
-17.27499955;0.71690450
-17.24999955;0.71690450
-17.22499955;0.71690450
-17.19999955;0.71690450
-17.17499956;0.71690450
-17.14999956;0.71690450
-17.12499956;0.71690450
-17.09999956;0.71690450
-17.07499956;0.71690450
-17.04999956;0.69801920
-17.02499956;0.73578980
-16.99999956;0.73578980
-16.97499956;0.71690450
-16.94999956;0.54712100
-16.92499956;0.69801920
-16.89999956;0.71690450
-16.87499956;0.71690450
-16.84999956;0.71690450
-16.82499956;0.69801920
-16.79999956;0.71690450
-16.77499957;0.71690450
-16.74999957;0.71690450
-16.72499957;0.69801920
-16.69999957;0.71690450
-16.67499957;0.69801920
-16.64999957;0.71690450
-16.62499957;0.71690450
-16.59999957;0.73578980
-16.57499957;0.69801920
-16.54999957;0.71690450
-16.52499957;0.69801920
-16.49999957;0.69801920
-16.47499957;0.71690450
-16.44999957;0.71690450
-16.42499957;0.71690450
-16.39999957;0.71690450
-16.37499958;0.71690450
-16.34999958;0.71690450
-16.32499958;0.71690450
-16.29999958;0.71690450
-16.27499958;0.71690450
-16.24999958;0.69801920
-16.22499958;0.71690450
-16.19999958;0.71690450
-16.17499958;0.71690450
-16.14999958;0.69801920
-16.12499958;0.73578980
-16.09999958;0.71690450
-16.07499958;0.73578980
-16.04999958;0.67919530
-16.02499958;0.71690450
-15.99999958;0.75461370
-15.97499959;0.71690450
-15.94999959;0.71690450
-15.92499959;0.69801920
-15.89999959;0.69801920
-15.87499959;0.69801920
-15.84999959;0.67919530
-15.82499959;0.69801920
-15.79999959;0.71690450
-15.77499959;0.69801920
-15.74999959;0.71690450
-15.72499959;0.71690450
-15.69999959;0.71690450
-15.67499959;0.64142470
-15.64999959;0.69801920
-15.62499959;0.69801920
-15.59999959;0.71690450
-15.57499960;0.71690450
-15.54999960;0.71690450
-15.52499960;0.69801920
-15.49999960;0.69801920
-15.47499960;0.69801920
-15.44999960;0.71690450
-15.42499960;0.69801920
-15.39999960;0.71690450
-15.37499960;0.71690450
-15.34999960;0.71690450
-15.32499960;0.71690450
-15.29999960;0.71690450
-15.27499960;0.71690450
-15.24999960;0.71690450
-15.22499960;0.69801920
-15.19999961;0.71690450
-15.17499961;0.71690450
-15.14999961;0.71690450
-15.12499961;0.69801920
-15.09999961;0.71690450
-15.07499961;0.71690450
-15.04999961;0.71690450
-15.02499961;0.71690450
-14.99999961;0.71690450
-14.97499961;0.73578980
-14.94999961;0.71690450
-14.92499961;0.71690450
-14.89999961;0.71690450
-14.87499961;0.71690450
-14.84999961;0.73578980
-14.82499961;0.73578980
-14.79999962;0.71690450
-14.77499962;0.71690450
-14.74999962;0.71690450
-14.72499962;0.71690450
-14.69999962;0.71690450
-14.67499962;0.71690450
-14.64999962;0.69801920
-14.62499962;0.71690450
-14.59999962;0.77349900
-14.57499962;0.71690450
-14.54999962;0.71690450
-14.52499962;0.71690450
-14.49999962;0.71690450
-14.47499962;0.71690450
-14.44999962;0.69801920
-14.42499962;0.71690450
-14.39999963;0.71690450
-14.37499963;0.69801920
-14.34999963;0.71690450
-14.32499963;0.69801920
-14.29999963;0.71690450
-14.27499963;0.71690450
-14.24999963;0.71690450
-14.22499963;0.71690450
-14.19999963;0.71690450
-14.17499963;0.69801920
-14.14999963;0.71690450
-14.12499963;0.69801920
-14.09999963;0.71690450
-14.07499963;0.71690450
-14.04999963;0.71690450
-14.02499963;0.69801920
-13.99999964;0.75461370
-13.97499964;0.71690450
-13.94999964;0.69801920
-13.92499964;0.71690450
-13.89999964;0.71690450
-13.87499964;0.71690450
-13.84999964;0.71690450
-13.82499964;0.71690450
-13.79999964;0.69801920
-13.77499964;0.69801920
-13.74999964;0.79238430
-13.72499964;0.69801920
-13.69999964;0.71690450
-13.67499964;0.71690450
-13.64999964;0.71690450
-13.62499964;0.73578980
-13.59999965;0.71690450
-13.57499965;0.71690450
-13.54999965;0.71690450
-13.52499965;0.71690450
-13.49999965;0.69801920
-13.47499965;0.71690450
-13.44999965;0.73578980
-13.42499965;0.69801920
-13.39999965;0.69801920
-13.37499965;0.73578980
-13.34999965;0.69801920
-13.32499965;0.71690450
-13.29999965;0.69801920
-13.27499965;0.69801920
-13.24999965;0.71690450
-13.22499965;0.69801920
-13.19999966;0.71690450
-13.17499966;0.67919530
-13.14999966;0.69801920
-13.12499966;0.71690450
-13.09999966;0.71690450
-13.07499966;0.71690450
-13.04999966;0.71690450
-13.02499966;0.71690450
-12.99999966;0.71690450
-12.97499966;0.71690450
-12.94999966;0.67919530
-12.92499966;0.69801920
-12.89999966;0.69801920
-12.87499966;0.67919530
-12.84999966;0.71690450
-12.82499967;0.71690450
-12.79999967;0.67919530
-12.77499967;0.71690450
-12.74999967;0.71690450
-12.72499967;0.71690450
-12.69999967;0.71690450
-12.67499967;0.69801920
-12.64999967;0.69801920
-12.62499967;0.71690450
-12.59999967;0.71690450
-12.57499967;0.73578980
-12.54999967;0.69801920
-12.52499967;0.71690450
-12.49999967;0.71690450
-12.47499967;0.71690450
-12.44999967;0.71690450
-12.42499968;0.71690450
-12.39999968;0.71690450
-12.37499968;0.71690450
-12.34999968;0.69801920
-12.32499968;0.69801920
-12.29999968;0.69801920
-12.27499968;0.71690450
-12.24999968;0.71690450
-12.22499968;0.71690450
-12.19999968;0.71690450
-12.17499968;0.71690450
-12.14999968;0.71690450
-12.12499968;0.73578980
-12.09999968;0.69801920
-12.07499968;0.71690450
-12.04999968;0.71690450
-12.02499969;0.71690450
-11.99999969;0.73578980
-11.97499969;0.71690450
-11.94999969;0.71690450
-11.92499969;0.71690450
-11.89999969;0.71690450
-11.87499969;0.71690450
-11.84999969;0.71690450
-11.82499969;0.69801920
-11.79999969;0.69801920
-11.77499969;0.71690450
-11.74999969;0.71690450
-11.72499969;0.71690450
-11.69999969;0.71690450
-11.67499969;0.69801920
-11.64999969;0.71690450
-11.62499970;0.69801920
-11.59999970;0.69801920
-11.57499970;0.71690450
-11.54999970;0.71690450
-11.52499970;0.71690450
-11.49999970;0.71690450
-11.47499970;0.71690450
-11.44999970;0.69801920
-11.42499970;0.71690450
-11.39999970;0.71690450
-11.37499970;0.71690450
-11.34999970;0.71690450
-11.32499970;0.69801920
-11.29999970;0.71690450
-11.27499970;0.71690450
-11.24999970;0.71690450
-11.22499971;0.69801920
-11.19999971;0.71690450
-11.17499971;0.71690450
-11.14999971;0.71690450
-11.12499971;0.67919530
-11.09999971;0.71690450
-11.07499971;0.71690450
-11.04999971;0.62253930
-11.02499971;0.62253930
-10.99999971;0.69801920
-10.97499971;0.69801920
-10.94999971;0.71690450
-10.92499971;0.71690450
-10.89999971;0.69801920
-10.87499971;0.71690450
-10.84999971;0.71690450
-10.82499972;0.69801920
-10.79999972;0.73578980
-10.77499972;0.69801920
-10.74999972;0.52823570
-10.72499972;0.69801920
-10.69999972;0.69801920
-10.67499972;0.69801920
-10.64999972;0.71690450
-10.62499972;0.69801920
-10.59999972;0.69801920
-10.57499972;0.69801920
-10.54999972;0.64142470
-10.52499972;0.67919530
-10.49999972;0.71690450
-10.47499972;0.69801920
-10.44999973;0.71690450
-10.42499973;0.77349900
-10.39999973;0.71690450
-10.37499973;0.71690450
-10.34999973;0.71690450
-10.32499973;0.71690450
-10.29999973;0.73578980
-10.27499973;0.75461370
-10.24999973;0.71690450
-10.22499973;0.69801920
-10.19999973;0.71690450
-10.17499973;0.69801920
-10.14999973;0.71690450
-10.12499973;0.71690450
-10.09999973;0.71690450
-10.07499973;0.73578980
-10.04999974;0.71690450
-10.02499974;0.64142470
-9.99999974;0.71690450
-9.97499974;0.69801920
-9.94999974;0.69801920
-9.92499974;0.69801920
-9.89999974;0.71690450
-9.87499974;0.71690450
-9.84999974;0.73578980
-9.82499974;0.71690450
-9.79999974;0.69801920
-9.77499974;0.71690450
-9.74999974;0.71690450
-9.72499974;0.71690450
-9.69999974;0.71690450
-9.67499974;0.71690450
-9.64999975;0.71690450
-9.62499975;0.71690450
-9.59999975;0.69801920
-9.57499975;0.69801920
-9.54999975;0.71690450
-9.52499975;0.71690450
-9.49999975;0.71690450
-9.47499975;0.71690450
-9.44999975;0.71690450
-9.42499975;0.75461370
-9.39999975;0.71690450
-9.37499975;0.71690450
-9.34999975;0.71690450
-9.32499975;0.71690450
-9.29999975;0.69801920
-9.27499975;0.71690450
-9.24999976;0.71690450
-9.22499976;0.73578980
-9.19999976;0.69801920
-9.17499976;0.69801920
-9.14999976;0.69801920
-9.12499976;0.71690450
-9.09999976;0.71690450
-9.07499976;0.73578980
-9.04999976;0.71690450
-9.02499976;0.71690450
-8.99999976;0.71690450
-8.97499976;0.71690450
-8.94999976;0.71690450
-8.92499976;0.69801920
-8.89999976;0.71690450
-8.87499976;0.69801920
-8.84999977;0.69801920
-8.82499977;0.71690450
-8.79999977;0.71690450
-8.77499977;0.71690450
-8.74999977;0.69801920
-8.72499977;0.71690450
-8.69999977;0.69801920
-8.67499977;0.71690450
-8.64999977;0.77349900
-8.62499977;0.69801920
-8.59999977;0.71690450
-8.57499977;0.71690450
-8.54999977;0.71690450
-8.52499977;0.69801920
-8.49999977;0.69801920
-8.47499977;0.71690450
-8.44999978;0.71690450
-8.42499978;0.71690450
-8.39999978;0.75461370
-8.37499978;0.69801920
-8.34999978;0.71690450
-8.32499978;0.71690450
-8.29999978;0.71690450
-8.27499978;0.71690450
-8.24999978;0.81120820
-8.22499978;0.71690450
-8.19999978;0.67919530
-8.17499978;0.69801920
-8.14999978;0.73578980
-8.12499978;0.71690450
-8.09999978;0.73578980
-8.07499979;0.69801920
-8.04999979;0.71690450
-8.02499979;0.71690450
-7.99999979;0.69801920
-7.97499979;0.69801920
-7.94999979;0.69801920
-7.92499979;0.69801920
-7.89999979;0.69801920
-7.87499979;0.71690450
-7.84999979;0.71690450
-7.82499979;0.69801920
-7.79999979;0.71690450
-7.77499979;0.71690450
-7.74999979;0.71690450
-7.72499979;0.71690450
-7.69999979;0.71690450
-7.67499980;0.71690450
-7.64999980;0.71690450
-7.62499980;0.71690450
-7.59999980;0.71690450
-7.57499980;0.71690450
-7.54999980;0.71690450
-7.52499980;0.71690450
-7.49999980;0.71690450
-7.47499980;0.69801920
-7.44999980;0.69801920
-7.42499980;0.73578980
-7.39999980;0.73578980
-7.37499980;0.73578980
-7.34999980;0.71690450
-7.32499980;0.71690450
-7.29999980;0.71690450
-7.27499981;0.71690450
-7.24999981;0.71690450
-7.22499981;0.71690450
-7.19999981;0.67919530
-7.17499981;0.69801920
-7.14999981;0.67919530
-7.12499981;0.71690450
-7.09999981;0.69801920
-7.07499981;0.73578980
-7.04999981;0.69801920
-7.02499981;0.71690450
-6.99999981;0.69801920
-6.97499981;0.67919530
-6.94999981;0.71690450
-6.92499981;0.71690450
-6.89999981;0.71690450
-6.87499982;0.71690450
-6.84999982;0.71690450
-6.82499982;0.71690450
-6.79999982;0.71690450
-6.77499982;0.71690450
-6.74999982;0.71690450
-6.72499982;0.71690450
-6.69999982;0.71690450
-6.67499982;0.71690450
-6.64999982;0.71690450
-6.62499982;0.71690450
-6.59999982;0.69801920
-6.57499982;0.73578980
-6.54999982;0.73578980
-6.52499982;0.71690450
-6.49999982;0.71690450
-6.47499983;0.71690450
-6.44999983;0.71690450
-6.42499983;0.69801920
-6.39999983;0.69801920
-6.37499983;0.71690450
-6.34999983;0.69801920
-6.32499983;0.71690450
-6.29999983;0.67919530
-6.27499983;0.69801920
-6.24999983;0.71690450
-6.22499983;0.71690450
-6.19999983;0.69801920
-6.17499983;0.69801920
-6.14999983;0.71690450
-6.12499983;0.69801920
-6.09999983;0.71690450
-6.07499984;0.71690450
-6.04999984;0.69801920
-6.02499984;0.69801920
-5.99999984;0.71690450
-5.97499984;0.67919530
-5.94999984;0.71690450
-5.92499984;0.67919530
-5.89999984;0.69801920
-5.87499984;0.71690450
-5.84999984;0.69801920
-5.82499984;0.69801920
-5.79999984;0.69801920
-5.77499984;0.71690450
-5.74999984;0.69801920
-5.72499984;0.71690450
-5.69999985;0.71690450
-5.67499985;0.73578980
-5.64999985;0.69801920
-5.62499985;0.67919530
-5.59999985;0.69801920
-5.57499985;0.71690450
-5.54999985;0.73578980
-5.52499985;0.67919530
-5.49999985;0.66031000
-5.47499985;0.73578980
-5.44999985;0.69801920
-5.42499985;0.73578980
-5.39999985;0.71690450
-5.37499985;0.71690450
-5.34999985;0.67919530
-5.32499985;0.69801920
-5.29999986;0.71690450
-5.27499986;0.71690450
-5.24999986;0.71690450
-5.22499986;0.71690450
-5.19999986;0.71690450
-5.17499986;0.71690450
-5.14999986;0.69801920
-5.12499986;0.73578980
-5.09999986;0.69801920
-5.07499986;0.71690450
-5.04999986;0.71690450
-5.02499986;0.69801920
-4.99999986;0.69801920
-4.97499986;0.69801920
-4.94999986;0.69801920
-4.92499986;0.69801920
-4.89999987;0.69801920
-4.87499987;0.71690450
-4.84999987;0.71690450
-4.82499987;0.71690450
-4.79999987;0.69801920
-4.77499987;0.71690450
-4.74999987;0.71690450
-4.72499987;0.71690450
-4.69999987;0.71690450
-4.67499987;0.71690450
-4.64999987;0.69801920
-4.62499987;0.69801920
-4.59999987;0.71690450
-4.57499987;0.71690450
-4.54999987;0.71690450
-4.52499987;0.69801920
-4.49999988;0.66031000
-4.47499988;0.69801920
-4.44999988;0.71690450
-4.42499988;0.69801920
-4.39999988;0.71690450
-4.37499988;0.71690450
-4.34999988;0.71690450
-4.32499988;0.71690450
-4.29999988;0.71690450
-4.27499988;0.71690450
-4.24999988;0.71690450
-4.22499988;0.71690450
-4.19999988;0.71690450
-4.17499988;0.71690450
-4.14999988;0.71690450
-4.12499988;0.71690450
-4.09999989;0.69801920
-4.07499989;0.71690450
-4.04999989;0.71690450
-4.02499989;0.69801920
